DU=f:\data\chemist\nmr\, USER=chemist, NAME=Z85754, EXPNO=10, PROCNO=1
F1=15.000ppm, F2=-0.500ppm, MI=0.50cm, MAXI=1000000.00cm, PC=1.000
           #     ADDRESS            FREQUENCY         INTENSITY
                           [Hz]        [PPM]
     1     35576.0     2772.501       6.9290         5.14
     2     35587.0     2770.820       6.9248         6.96
     3     35642.3     2762.377       6.9037        10.64
     4     35693.7     2754.535       6.8841         9.90
     5     35749.8     2745.972       6.8627         5.34
     6     35758.5     2744.652       6.8594         5.07
     7     35810.7     2736.689       6.8395         2.00
     8     43288.1     1595.718       3.9880         4.55
     9     43355.5     1585.435       3.9623         2.80
    10     43436.8     1573.031       3.9313         2.37
    11     43476.9     1566.909       3.9160         1.36
    12     43508.9     1562.027       3.9038         1.17
    13     43548.5     1555.986       3.8887         1.20
    14     43578.7     1551.384       3.8772         1.25
    15     43857.7     1508.810       3.7708         1.30
    16     43907.0     1501.288       3.7520         2.19
    17     43952.1     1494.406       3.7348         1.35
    18     43995.6     1487.763       3.7182         2.58
    19     44011.6     1485.323       3.7121         1.77
    20     44045.2     1480.201       3.6993         2.76
    21     44082.2     1474.559       3.6852        28.97
    22     44103.7     1471.278       3.6770        31.24
    23     44152.7     1463.796       3.6583        39.94
    24     44174.5     1460.474       3.6500        39.35
    25     44206.7     1455.553       3.6377         2.77
    26     44251.6     1448.711       3.6206         1.86
    27     44277.0     1444.829       3.6109         1.59
    28     44300.9     1441.188       3.6018         1.25
    29     44329.7     1436.787       3.5908         2.51
    30     44409.4     1424.623       3.5604         1.70
    31     44431.7     1421.222       3.5519         2.31
    32     44485.0     1413.099       3.5316        37.62
    33     44539.8     1404.736       3.5107        38.78
    34     44555.5     1402.336       3.5047        28.76
    35     44610.3     1393.973       3.4838        27.14
    36     46994.7     1030.135       2.5745         1.38
    37     47038.3     1023.493       2.5579        12.36
    38     47070.3     1018.611       2.5457        20.34
    39     47097.0     1014.530       2.5355        18.80
    40     47124.5     1010.328       2.5250        20.80
    41     47156.8     1005.407       2.5127        12.57
    42     47184.1     1001.245       2.5023         2.99
    43     47230.5      994.163       2.4846         3.17
    44     47252.8      990.762       2.4761         1.67
    45     47276.6      987.121       2.4670         1.55
    46     47300.0      983.560       2.4581         1.39
    47     47888.4      893.770       2.2337         1.27
    48     47932.2      887.088       2.2170         1.39
    49     49038.6      718.273       1.7951         3.46
    50     49067.4      713.872       1.7841         3.86
    51     49088.1      710.711       1.7762         9.63
    52     49116.7      706.349       1.7653        10.10
    53     49136.6      703.309       1.7577        13.85
    54     49165.7      698.867       1.7466        15.26
    55     49184.4      696.026       1.7395        18.59
    56     49212.9      691.665       1.7286        22.28
    57     49233.9      688.464       1.7206        19.98
    58     49247.8      686.343       1.7153        16.99
    59     49261.2      684.302       1.7102        24.04
    60     49283.2      680.941       1.7018        12.23
    61     49293.2      679.421       1.6980        15.20
    62     49313.6      676.300       1.6902        16.49
    63     49347.5      671.138       1.6773         7.38
    64     49361.4      669.017       1.6720         5.95
    65     49368.4      667.937       1.6693         6.20
    66     49393.1      664.176       1.6599         2.33
    67     49414.9      660.855       1.6516         2.01
    68     49574.0      636.567       1.5909         4.60
    69     49623.1      629.084       1.5722        13.59
    70     49659.3      623.563       1.5584        15.09
    71     49671.3      621.722       1.5538        17.39
    72     49707.5      616.200       1.5400        18.12
    73     49718.8      614.480       1.5357        15.66
    74     49755.0      608.958       1.5219        15.35
    75     49767.0      607.117       1.5173        11.90
    76     49803.2      601.595       1.5035        10.75
    77     49816.1      599.635       1.4986         5.47
    78     49837.6      596.354       1.4904         3.29
    79     49851.7      594.193       1.4850         3.98
    80     49880.3      589.832       1.4741         2.43
    81     49928.6      582.469       1.4557         1.74
    82     50275.2      529.572       1.3235         1.42
    83     50299.1      525.931       1.3144         1.26
    84     50321.4      522.530       1.3059         2.41
    85     50367.0      515.568       1.2885         3.43
    86     50455.9      502.003       1.2546         2.37
    87     50502.1      494.961       1.2370         1.48
    88     50970.4      423.498       1.0584         1.21
    89     50986.9      420.977       1.0521         1.28
    90     51013.9      416.855       1.0418         1.35
    91     51042.3      412.534       1.0310         4.18
    92     51088.9      405.412       1.0132         7.12
    93     51135.6      398.289       0.9954         3.88
    94     51148.7      396.289       0.9904         3.03
    95     51195.9      389.086       0.9724         2.24
    96     51233.7      383.325       0.9580         1.62
    97     51254.9      380.083       0.9499         1.86
    98     51276.7      376.762       0.9416         3.29
    99     51325.5      369.320       0.9230         6.19
   100     51334.6      367.920       0.9195         5.72
   101     51391.8      359.197       0.8977        97.19
   102     51441.1      351.674       0.8789       200.00
   103     51458.1      349.073       0.8724       199.08
   104     51490.9      344.072       0.8599       113.61
   105     51503.8      342.111       0.8550       187.23
   106     51539.4      336.669       0.8414        18.24
   107     51573.8      331.428       0.8283        10.07
   108     51586.9      329.427       0.8233         6.70
   109     51621.3      324.185       0.8102         6.99
